{
    "@context": [
        "https://ref.gs1.org/standards/epcis/2.0.0/epcis-context.jsonld",
        {
            "mft-spectra": "https:/ref.medifit-prima.net/epcis/sensorReport/spectroscopy"
        }
    ],
    "type": "ObjectEvent",
    "action": "OBSERVE",
    "bizStep": "sensor_reporting",
    "eventTime": "2023-08-28T17:10:35.953+02:00",
    "eventTimeZoneOffset": "+02:00",
    "readPoint": {
        "id": "https://medifit-prima.net"
    },
    "sensorElementList": [
        {
            "sensorMetadata": {
                "time": "2022-11-07T09:56:54.000+01:00",
                "rawData": "https://medifit-sample-exchange.s3.eu-central-1.amazonaws.com/Adulterared_honey_raw+data_AUTH_Raman.xlsx"
            },
            "sensorReport": [
                {
                    "type": "Wavenumber",
                    "mft-spectra:type": "Raman",
                    "mft-spectra:values": [
                        2439.0,
                        2436.2332,
                        2439.1868,
                        2444.9905,
                        2419.7074,
                        2401.7396,
                        2386.6074,
                        2357.7211,
                        2385.5652,
                        2427.4564,
                        2412.1669,
                        2404.5214,
                        2406.8844,
                        2428.8427,
                        2399.1163,
                        2383.954,
                        2421.0286,
                        2416.8326,
                        2413.7025,
                        2420.081,
                        2403.5229,
                        2389.2858,
                        2379.816,
                        2410.2012,
                        2422.9888,
                        2423.2498,
                        2431.0147,
                        2420.8345,
                        2403.2136,
                        2395.977,
                        2400.4648,
                        2409.0364,
                        2416.7177,
                        2416.1792,
                        2423.8374,
                        2450.4135,
                        2465.9534,
                        2469.6585,
                        2459.6305,
                        2467.1678,
                        2471.3634,
                        2473.0678,
                        2489.9182,
                        2495.4752,
                        2492.036,
                        2479.2008,
                        2458.4208,
                        2446.0522,
                        2471.2346,
                        2474.9811,
                        2483.0955,
                        2511.729,
                        2501.2384,
                        2498.8798,
                        2514.8617,
                        2511.4033,
                        2506.38,
                        2499.5187,
                        2480.569,
                        2473.8097,
                        2480.4626,
                        2516.5331,
                        2516.053,
                        2502.8786,
                        2494.8512,
                        2485.0246,
                        2491.3975,
                        2526.7376,
                        2499.353,
                        2489.487,
                        2506.0241,
                        2511.9601,
                        2523.5497,
                        2533.5158,
                        2501.4856,
                        2484.5173,
                        2481.3571,
                        2500.3069,
                        2498.2731,
                        2499.1639,
                        2517.2157,
                        2501.7629,
                        2493.2966,
                        2498.5069,
                        2518.6783,
                        2521.4519,
                        2513.9062,
                        2533.1582,
                        2531.3044,
                        2518.6187,
                        2504.2801,
                        2527.2857,
                        2553.8823,
                        2567.8094,
                        2624.5717,
                        2662.5783,
                        2673.035,
                        2675.9088,
                        2676.4448,
                        2671.3914,
                        2642.2723,
                        2619.153,
                        2591.7994,
                        2544.9111,
                        2519.9658,
                        2500.5055,
                        2482.1576,
                        2443.5098,
                        2425.0626,
                        2425.3682,
                        2396.1576,
                        2392.1611,
                        2400.5832,
                        2399.5247,
                        2418.8266,
                        2432.5623,
                        2421.1602,
                        2399.1246,
                        2385.4492,
                        2383.4767,
                        2383.3023,
                        2388.8557,
                        2392.6214,
                        2363.679,
                        2362.0859,
                        2363.5501,
                        2345.9305,
                        2351.6175,
                        2352.3175,
                        2340.6665,
                        2367.6378,
                        2370.5818,
                        2357.1696,
                        2363.8261,
                        2363.5528,
                        2359.8978,
                        2355.2131,
                        2370.5185,
                        2390.2288,
                        2410.6862,
                        2397.3431,
                        2377.607,
                        2355.7901,
                        2352.2253,
                        2363.0407,
                        2369.1763,
                        2345.471,
                        2362.5503,
                        2373.9687,
                        2366.6731,
                        2360.6276,
                        2377.1648,
                        2406.32,
                        2405.7443,
                        2391.8439,
                        2375.0886,
                        2364.368,
                        2377.1968,
                        2375.108,
                        2349.8166,
                        2333.2061,
                        2328.9907,
                        2334.4401,
                        2345.919,
                        2333.9849,
                        2328.9955,
                        2353.4886,
                        2334.1768,
                        2329.4561,
                        2340.4324,
                        2297.2546,
                        2296.7333,
                        2318.6896,
                        2338.6608,
                        2337.4961,
                        2339.5909,
                        2354.3807,
                        2360.3275,
                        2354.1149,
                        2337.7043,
                        2316.9731,
                        2316.3559,
                        2325.2856,
                        2338.2743,
                        2311.7254,
                        2303.1703,
                        2319.2808,
                        2319.4716,
                        2331.488,
                        2341.1885,
                        2320.6282,
                        2301.2191,
                        2294.8778,
                        2307.75,
                        2292.4076,
                        2273.2888,
                        2257.0875,
                        2269.2796,
                        2264.7046,
                        2256.9628,
                        2254.037,
                        2243.3453,
                        2242.375,
                        2252.3428,
                        2272.5239,
                        2277.6077,
                        2268.4596,
                        2240.2762,
                        2228.2251,
                        2233.6274,
                        2254.4009,
                        2240.7866,
                        2245.6461,
                        2251.1021,
                        2226.97,
                        2238.3685,
                        2241.4449,
                        2224.2438,
                        2235.1632,
                        2251.8623,
                        2263.2776,
                        2240.5023,
                        2242.1868,
                        2251.9333,
                        2264.7769,
                        2252.2986,
                        2275.2903,
                        2312.3768,
                        2301.7172,
                        2300.7323,
                        2297.7485,
                        2287.0372,
                        2318.4274,
                        2334.7969,
                        2342.3931,
                        2365.1206,
                        2372.2644,
                        2369.5803,
                        2358.0441,
                        2387.8643,
                        2395.4989,
                        2389.2438,
                        2402.0158,
                        2403.7938,
                        2408.0997,
                        2422.2881,
                        2426.2527,
                        2424.397,
                        2425.155,
                        2457.2168,
                        2473.1576,
                        2481.187,
                        2483.8008,
                        2515.1158,
                        2513.7792,
                        2500.3534,
                        2533.0204,
                        2523.4008,
                        2516.3003,
                        2528.5915,
                        2514.7478,
                        2496.1816,
                        2478.6718,
                        2475.2933,
                        2472.8807,
                        2458.6765,
                        2430.4655,
                        2439.5328,
                        2419.0838,
                        2394.1812,
                        2402.293,
                        2394.9855,
                        2376.4422,
                        2349.219,
                        2333.7456,
                        2321.7108,
                        2306.8005,
                        2281.8846,
                        2291.4438,
                        2289.4771,
                        2275.8802,
                        2272.1995,
                        2263.6231,
                        2262.3901,
                        2276.9812,
                        2262.4321,
                        2254.0003,
                        2251.7318,
                        2254.7668,
                        2259.4492,
                        2251.8054,
                        2228.9581,
                        2244.2741,
                        2247.4829,
                        2244.0354,
                        2239.5655,
                        2251.6393,
                        2267.1235,
                        2277.3449,
                        2240.6307,
                        2218.7122,
                        2194.3012,
                        2155.9938,
                        2186.0945,
                        2184.8579,
                        2163.0711,
                        2149.4683,
                        2137.4043,
                        2143.0836,
                        2165.8919,
                        2132.0411,
                        2126.7521,
                        2125.2782,
                        2103.7772,
                        2084.229,
                        2081.0099,
                        2085.3304,
                        2063.4339,
                        2070.2413,
                        2064.5118,
                        2033.0688,
                        2042.956,
                        2052.4503,
                        2064.2474,
                        2082.226,
                        2034.732,
                        2028.1371,
                        2049.2773,
                        2003.6801,
                        1998.1333,
                        2010.6015,
                        2032.3756,
                        2032.0118,
                        2023.5228,
                        2018.5413,
                        2031.8865,
                        2022.9192,
                        2038.6799,
                        2068.3548,
                        2060.1917,
                        2064.247,
                        2067.9168,
                        2067.9806,
                        2079.9174,
                        2100.4268,
                        2115.3337,
                        2110.4786,
                        2126.3414,
                        2133.7568,
                        2129.8788,
                        2109.3286,
                        2111.6195,
                        2111.9482,
                        2110.7015,
                        2150.1973,
                        2173.4493,
                        2180.1216,
                        2168.8013,
                        2176.6624,
                        2196.3198,
                        2213.8141,
                        2208.884,
                        2206.5249,
                        2204.1585,
                        2207.2121,
                        2235.2293,
                        2278.7936,
                        2311.0741,
                        2325.7242,
                        2339.0504,
                        2334.1045,
                        2335.969,
                        2360.843,
                        2343.9361,
                        2339.3932,
                        2337.9225,
                        2326.9846,
                        2328.0241,
                        2303.8085,
                        2263.1579,
                        2238.6873,
                        2226.3774,
                        2210.3795,
                        2190.3597,
                        2187.2183,
                        2169.8828,
                        2161.4509,
                        2169.7531,
                        2130.3993,
                        2115.207,
                        2113.4296,
                        2117.0408,
                        2128.0999,
                        2112.2447,
                        2089.8969,
                        2094.9125,
                        2073.3803,
                        2086.6283,
                        2116.0152,
                        2091.1894,
                        2104.1004,
                        2096.5516,
                        2064.4492,
                        2053.0264,
                        2060.1019,
                        2042.5605,
                        1994.2493,
                        2031.8011,
                        2027.9412,
                        2014.7959,
                        2011.7088,
                        2019.2499,
                        1997.5763,
                        1961.7884,
                        1925.5425,
                        1948.4559,
                        1964.9613,
                        1969.9211,
                        1956.9205,
                        1956.655,
                        1959.9726,
                        1960.0318,
                        1943.1579,
                        1937.6818,
                        1942.1236,
                        1944.8972,
                        1910.2432,
                        1921.4211,
                        1912.0578,
                        1880.9046,
                        1889.1779,
                        1886.187,
                        1887.0386,
                        1893.7936,
                        1888.928,
                        1898.4738,
                        1898.4255,
                        1881.5816,
                        1877.5681,
                        1869.9423,
                        1868.3568,
                        1877.1531,
                        1881.103,
                        1886.1023,
                        1885.2409,
                        1875.2811,
                        1894.548,
                        1911.2487,
                        1926.4333,
                        1940.6061,
                        1937.9535,
                        1942.6646,
                        1942.9063,
                        1927.614,
                        1936.8868,
                        1950.4928,
                        1962.6657,
                        1967.2685,
                        1960.5711,
                        1953.9442,
                        1950.3966,
                        1953.3633,
                        1946.4864,
                        1935.6232,
                        1929.0027,
                        1936.8015,
                        1920.9877,
                        1925.9075,
                        1933.3708,
                        1918.2264,
                        1906.3555,
                        1904.3069,
                        1916.3895,
                        1948.2918,
                        2040.8759,
                        2078.1516,
                        2071.352,
                        2038.7216,
                        2034.5187,
                        2023.787,
                        2032.9378,
                        2095.2754,
                        2063.3626,
                        2063.1207,
                        2066.3593,
                        2038.7599,
                        2007.334,
                        1991.7323,
                        1988.1241,
                        1992.2095,
                        1981.069,
                        2011.0628,
                        2032.0748,
                        2001.2443,
                        2002.2468,
                        2013.7531,
                        2036.6341,
                        2068.9197,
                        2057.9353,
                        2071.6652,
                        2075.2972,
                        2051.0479,
                        2055.3821,
                        2053.3086,
                        2035.165,
                        1999.8995,
                        1980.749,
                        1960.001,
                        1938.9958,
                        1915.405,
                        1873.1967,
                        1854.3023,
                        1842.029,
                        1826.4802,
                        1788.793,
                        1784.5286,
                        1784.2464,
                        1784.1389,
                        1792.0194,
                        1768.1328,
                        1748.3332,
                        1735.8987,
                        1726.8437,
                        1721.7296,
                        1703.9566,
                        1682.1281,
                        1670.3244,
                        1672.7735,
                        1665.076,
                        1662.4371,
                        1678.9181,
                        1664.9615,
                        1650.7688,
                        1649.12,
                        1663.9783,
                        1648.4201,
                        1632.9681,
                        1631.4152,
                        1644.4952,
                        1644.3885,
                        1643.7349,
                        1634.799,
                        1616.8816,
                        1594.1656,
                        1606.3791,
                        1611.9752,
                        1614.6306,
